File: 00_Test_Data/EIS_Batteryname_0.0_Temperature_0.0°C_2.0C_precharge_0.0%25SOC_1.csv
Time [s],Channel,Voltage [V],Current [A],Ah-Step [Ah],Ah-Step Counter [Ah],SOC [%],Ah-Step BaSyTec [Ah],Temperature [Â°C],BatteryVoltagePeakPeak,BatteryCurrentPeakPeak,Capacity [mAh],C-Rate,ReZf_5.0Hz,lmZf_5.0Hz,PhaseZ_5.0Hz,Frequency_5.0Hz,ReZf_10.0Hz,lmZf_10.0Hz,PhaseZ_10.0Hz,Frequency_10.0Hz,ReZf_15.0Hz,lmZf_15.0Hz,PhaseZ_15.0Hz,Frequency_15.0Hz,ReZf_20.0Hz,lmZf_20.0Hz,PhaseZ_20.0Hz,Frequency_20.0Hz,ReZf_25.0Hz,lmZf_25.0Hz,PhaseZ_25.0Hz,Frequency_25.0Hz,ReZf_35.0Hz,lmZf_35.0Hz,PhaseZ_35.0Hz,Frequency_35.0Hz,ReZf_55.0Hz,lmZf_55.0Hz,PhaseZ_55.0Hz,Frequency_55.0Hz,ReZf_80.0Hz,lmZf_80.0Hz,PhaseZ_80.0Hz,Frequency_80.0Hz,ReZf_120.0Hz,lmZf_120.0Hz,PhaseZ_120.0Hz,Frequency_120.0Hz,ReZf_180.0Hz,lmZf_180.0Hz,PhaseZ_180.0Hz,Frequency_180.0Hz,ReZf_270.0Hz,lmZf_270.0Hz,PhaseZ_270.0Hz,Frequency_270.0Hz,ReZf_405.0Hz,lmZf_405.0Hz,PhaseZ_405.0Hz,Frequency_405.0Hz,ReZf_605.0Hz,lmZf_605.0Hz,PhaseZ_605.0Hz,Frequency_605.0Hz,ReZf_900.0Hz,lmZf_900.0Hz,PhaseZ_900.0Hz,Frequency_900.0Hz,ReZf_1340.0Hz,lmZf_1340.0Hz,PhaseZ_1340.0Hz,Frequency_1340.0Hz,ReZf_2000.0Hz,lmZf_2000.0Hz,PhaseZ_2000.0Hz,Frequency_2000.0Hz
10.853,3,3.9134,5.799,,0,,1.46667,25.97,0.00926873,0.348003,0.0,2.0,0.0313796,-0.00101564,-1.8538,5.0,0.0305994,-0.00226391,-4.23135,10.0,0.0300112,-0.00315131,-5.99434,15.0,0.0293289,-0.00346027,-6.72874,20.0,0.0287276,-0.00398564,-7.89874,25.0,0.0276536,-0.00468239,-9.61035,35.0,0.0261697,-0.00537194,-11.6001,55.0,0.0247809,-0.00593871,-13.4767,80.0,0.0227273,-0.00647878,-15.911,120.0,0.0205034,-0.00669481,-18.083,180.0,0.0180033,-0.00631494,-19.3291,270.0,0.0155055,-0.00506192,-18.0798,405.0,0.0136258,-0.00298833,-12.3699,605.0,0.0126617,-0.000388274,-1.75643,900.0,0.012606,0.00241355,10.8387,1340.0,0.0132137,0.00529725,21.8455,2000.0
19.433,3,3.9342,5.799,,0,,1.48083,26.14,0.00929402,0.344895,0.0,2.0,0.0311272,-0.00196095,-3.60475,5.0,0.0300977,-0.00280261,-5.31986,10.0,0.0298384,-0.0032463,-6.20912,15.0,0.0289889,-0.00353654,-6.9555,20.0,0.0284871,-0.00409792,-8.18595,25.0,0.0273895,-0.00437862,-9.08273,35.0,0.0262659,-0.00522328,-11.2472,55.0,0.0246306,-0.00584555,-13.3509,80.0,0.0227557,-0.00633066,-15.5466,120.0,0.0204943,-0.00659188,-17.8301,180.0,0.0179721,-0.00626555,-19.2199,270.0,0.0154929,-0.00504778,-18.0463,405.0,0.0136307,-0.0029441,-12.1881,605.0,0.0126608,-0.000384056,-1.73749,900.0,0.0125805,0.00241947,10.8861,1340.0,0.0132094,0.00530539,21.8822,2000.0
28.4175,3,3.9516,5.799,,0,,1.495,26.35,0.00844047,0.337438,0.0,2.0,0.0310483,-0.0020158,-3.71469,5.0,0.0299252,-0.00256857,-4.90584,10.0,0.0292598,-0.00317744,-6.19769,15.0,0.0288732,-0.0035443,-6.99828,20.0,0.0281001,-0.0041412,-8.3835,25.0,0.0271758,-0.00437008,-9.1354,35.0,0.0259234,-0.005084,-11.0958,55.0,0.024542,-0.00568996,-13.0532,80.0,0.0226648,-0.00637095,-15.7004,120.0,0.0204998,-0.00663881,-17.9444,180.0,0.0179026,-0.00627182,-19.3069,270.0,0.0154603,-0.00500305,-17.9319,405.0,0.0136143,-0.00293576,-12.1689,605.0,0.0126508,-0.000363493,-1.64581,900.0,0.0125712,0.0024429,10.997,1340.0,0.0131971,0.00530047,21.8823,2000.0
37.4518,3,3.9668,5.799,,0,,1.50972,26.59,0.00840472,0.342099,0.0,2.0,0.0307608,-0.00226087,-4.20359,5.0,0.0298079,-0.00262958,-5.04144,10.0,0.0287214,-0.00300692,-5.97668,15.0,0.0285577,-0.00359362,-7.17224,20.0,0.0280486,-0.00386923,-7.85421,25.0,0.0271741,-0.00436473,-9.12497,35.0,0.0258981,-0.00512239,-11.1881,55.0,0.0244487,-0.00567487,-13.0677,80.0,0.0226514,-0.00616296,-15.2205,120.0,0.020415,-0.00649933,-17.6594,180.0,0.0178811,-0.00616675,-19.028,270.0,0.0154464,-0.00495911,-17.7994,405.0,0.0135822,-0.0029034,-12.0662,605.0,0.0126357,-0.000357963,-1.62273,900.0,0.0125451,0.00244944,11.0481,1340.0,0.0131776,0.0053164,21.9713,2000.0
46.4755,3,3.9799,5.799,,0,,1.52444,26.87,0.00839339,0.344585,0.0,2.0,0.0305864,-0.00171746,-3.21386,5.0,0.0295444,-0.00210618,-4.07765,10.0,0.0288013,-0.00280616,-5.56485,15.0,0.0282709,-0.0034911,-7.03967,20.0,0.027559,-0.00365265,-7.54993,25.0,0.0271202,-0.00435542,-9.12362,35.0,0.0258021,-0.0049843,-10.9334,55.0,0.0243749,-0.00554734,-12.8212,80.0,0.0225235,-0.00611211,-15.1825,120.0,0.0203156,-0.00638054,-17.436,180.0,0.0178172,-0.00612146,-18.9612,270.0,0.0154208,-0.00490158,-17.6331,405.0,0.0135815,-0.00288833,-12.006,605.0,0.0126228,-0.000318915,-1.44728,900.0,0.012526,0.00248026,11.2002,1340.0,0.013157,0.00532709,22.0423,2000.0
55.5019,3,3.9921,5.799,,0,,1.53889,27.1,0.00862705,0.341478,0.0,2.0,0.0304337,-0.00150517,-2.8314,5.0,0.0295643,-0.00234731,-4.53957,10.0,0.0287516,-0.00299425,-5.94546,15.0,0.0279792,-0.00340085,-6.93026,20.0,0.0278387,-0.00361356,-7.39584,25.0,0.0268218,-0.00417874,-8.85528,35.0,0.0255642,-0.00492712,-10.9092,55.0,0.0241383,-0.00544824,-12.7191,80.0,0.02243,-0.00601126,-15.0028,120.0,0.020252,-0.00635336,-17.4174,180.0,0.0178051,-0.0060476,-18.7604,270.0,0.0153762,-0.00486754,-17.5659,405.0,0.0135883,-0.0028515,-11.8515,605.0,0.0125946,-0.000322182,-1.46536,900.0,0.0125111,0.00248396,11.2295,1340.0,0.0131507,0.00534488,22.1184,2000.0
64.5241,3,4.0034,5.799,,0,,1.55361,27.35,0.00818153,0.341478,0.0,2.0,0.029118,-0.00162512,-3.19445,5.0,0.0292499,-0.00207177,-4.05149,10.0,0.0284572,-0.00273326,-5.48632,15.0,0.0280312,-0.00334684,-6.80869,20.0,0.0275767,-0.00353087,-7.29635,25.0,0.0265804,-0.00379941,-8.13478,35.0,0.0254809,-0.00476063,-10.5826,55.0,0.0241346,-0.00533075,-12.4553,80.0,0.0223539,-0.00591566,-14.8228,120.0,0.0202139,-0.00622977,-17.1289,180.0,0.0178345,-0.00598819,-18.5602,270.0,0.0153672,-0.00484586,-17.502,405.0,0.0135528,-0.00283825,-11.828,605.0,0.0125735,-0.000287696,-1.31077,900.0,0.0124941,0.0025003,11.3165,1340.0,0.0131182,0.00536245,22.2338,2000.0
73.5546,3,4.0128,5.799,,0,,1.56778,27.6,0.00827482,0.343342,0.0,2.0,0.0290237,-0.00173664,-3.42423,5.0,0.0287196,-0.00193228,-3.8491,10.0,0.0285521,-0.00270682,-5.41562,15.0,0.0276375,-0.0029944,-6.18362,20.0,0.0271704,-0.00319365,-6.70387,25.0,0.0264332,-0.00409465,-8.80546,35.0,0.025131,-0.0046419,-10.4651,55.0,0.0238948,-0.00533288,-12.5812,80.0,0.0222874,-0.00584152,-14.6868,120.0,0.0201678,-0.00613989,-16.9324,180.0,0.0177366,-0.0059268,-18.4774,270.0,0.0153363,-0.00477887,-17.3073,405.0,0.0135454,-0.00280937,-11.7172,605.0,0.0125543,-0.000287539,-1.31205,900.0,0.0124675,0.0025116,11.3899,1340.0,0.013111,0.00534791,22.1902,2000.0
82.5659,3,4.0222,5.799,,0,,1.5825,27.84,0.00815886,0.344895,0.0,2.0,0.0284884,-0.0017475,-3.51017,5.0,0.0282656,-0.00249549,-5.04541,10.0,0.027597,-0.00279692,-5.78709,15.0,0.0274651,-0.00308421,-6.40721,20.0,0.026918,-0.00321611,-6.81328,25.0,0.0261381,-0.00371879,-8.09741,35.0,0.0251288,-0.0046732,-10.5349,55.0,0.0237876,-0.00517213,-12.2669,80.0,0.022174,-0.00569878,-14.4133,120.0,0.020129,-0.00606498,-16.7678,180.0,0.0177255,-0.00586528,-18.3091,270.0,0.0153423,-0.00472197,-17.107,405.0,0.0135214,-0.00277112,-11.582,605.0,0.0125465,-0.000250847,-1.14539,900.0,0.0124601,0.00250713,11.3767,1340.0,0.0130827,0.00536388,22.2936,2000.0
91.5102,3,3.8098,-0.965,,0,,1.59472,28.1,0.0135836,0.34707,0.0,2.0,0.0285611,-0.00129214,-2.59038,5.0,0.0282337,-0.00192949,-3.9095,10.0,0.0277497,-0.00229684,-4.73158,15.0,0.0273608,-0.00280982,-5.86344,20.0,0.0268948,-0.00319232,-6.76914,25.0,0.0262618,-0.003846,-8.33165,35.0,0.0249914,-0.00449027,-10.1858,55.0,0.0236925,-0.0051282,-12.2132,80.0,0.0220759,-0.00568328,-14.4369,120.0,0.0201236,-0.00596332,-16.5064,180.0,0.0177021,-0.00583034,-18.2297,270.0,0.0153519,-0.00470661,-17.0446,405.0,0.0135057,-0.00276633,-11.5756,605.0,0.012558,-0.000240082,-1.09524,900.0,0.012453,0.0025339,11.5014,1340.0,0.0130927,0.00537485,22.3193,2000.0