File: 00_Test_Data/EIS_Batteryname_0.0_Temperature_0.0°C_1.0C_precharge_0.0%25SOC_1.csv
Time [s],Channel,Voltage [V],Current [A],Ah-Step [Ah],Ah-Step Counter [Ah],SOC [%],Ah-Step BaSyTec [Ah],Temperature [Â°C],BatteryVoltagePeakPeak,BatteryCurrentPeakPeak,Capacity [mAh],C-Rate,ReZf_5.0Hz,lmZf_5.0Hz,PhaseZ_5.0Hz,Frequency_5.0Hz,ReZf_10.0Hz,lmZf_10.0Hz,PhaseZ_10.0Hz,Frequency_10.0Hz,ReZf_15.0Hz,lmZf_15.0Hz,PhaseZ_15.0Hz,Frequency_15.0Hz,ReZf_20.0Hz,lmZf_20.0Hz,PhaseZ_20.0Hz,Frequency_20.0Hz,ReZf_25.0Hz,lmZf_25.0Hz,PhaseZ_25.0Hz,Frequency_25.0Hz,ReZf_35.0Hz,lmZf_35.0Hz,PhaseZ_35.0Hz,Frequency_35.0Hz,ReZf_55.0Hz,lmZf_55.0Hz,PhaseZ_55.0Hz,Frequency_55.0Hz,ReZf_80.0Hz,lmZf_80.0Hz,PhaseZ_80.0Hz,Frequency_80.0Hz,ReZf_120.0Hz,lmZf_120.0Hz,PhaseZ_120.0Hz,Frequency_120.0Hz,ReZf_180.0Hz,lmZf_180.0Hz,PhaseZ_180.0Hz,Frequency_180.0Hz,ReZf_270.0Hz,lmZf_270.0Hz,PhaseZ_270.0Hz,Frequency_270.0Hz,ReZf_405.0Hz,lmZf_405.0Hz,PhaseZ_405.0Hz,Frequency_405.0Hz,ReZf_605.0Hz,lmZf_605.0Hz,PhaseZ_605.0Hz,Frequency_605.0Hz,ReZf_900.0Hz,lmZf_900.0Hz,PhaseZ_900.0Hz,Frequency_900.0Hz,ReZf_1340.0Hz,lmZf_1340.0Hz,PhaseZ_1340.0Hz,Frequency_1340.0Hz,ReZf_2000.0Hz,lmZf_2000.0Hz,PhaseZ_2000.0Hz,Frequency_2000.0Hz
19.6899,3,3.8017,2.9,,0,,1.46556,25.9,0.00865233,0.348313,0.0,1.0,0.0319246,-0.00207379,-3.71666,5.0,0.030821,-0.00296547,-5.49585,10.0,0.0302786,-0.00352191,-6.63465,15.0,0.0296895,-0.0038465,-7.38197,20.0,0.02895,-0.0041214,-8.10235,25.0,0.0278852,-0.00485705,-9.88068,35.0,0.0263555,-0.00562024,-12.0379,55.0,0.0249158,-0.00611762,-13.7951,80.0,0.02301,-0.00658603,-15.9724,120.0,0.0205786,-0.00681143,-18.3143,180.0,0.0179791,-0.00644351,-19.7171,270.0,0.0155488,-0.00513832,-18.2868,405.0,0.0136611,-0.00301318,-12.4384,605.0,0.012677,-0.000392818,-1.77484,900.0,0.0125986,0.00242895,10.9125,1340.0,0.0132423,0.00530736,21.8404,2000.0
37.4176,3,3.8184,2.899,,0,,1.47972,26.03,0.00855904,0.346449,0.0,1.0,0.0313023,-0.00214718,-3.92405,5.0,0.0308132,-0.00276788,-5.13297,10.0,0.0298848,-0.00324988,-6.20635,15.0,0.0296873,-0.00406308,-7.79322,20.0,0.0286693,-0.00443543,-8.7945,25.0,0.0279077,-0.00472213,-9.6038,35.0,0.0262818,-0.00540597,-11.6232,55.0,0.0247844,-0.00604913,-13.7161,80.0,0.0229565,-0.00653164,-15.8823,120.0,0.0205583,-0.00674939,-18.1753,180.0,0.0180205,-0.00642424,-19.621,270.0,0.0154788,-0.00508403,-18.1828,405.0,0.0136337,-0.00301603,-12.474,605.0,0.0126565,-0.000365352,-1.65349,900.0,0.0126004,0.00244413,10.9775,1340.0,0.0132301,0.00530895,21.8645,2000.0
55.5251,3,3.8317,2.899,,0,,1.49444,26.19,0.00871772,0.34241,0.0,1.0,0.0315027,-0.00121084,-2.20115,5.0,0.0309184,-0.00306799,-5.66683,10.0,0.0300334,-0.00356292,-6.7655,15.0,0.0291808,-0.00354835,-6.93307,20.0,0.0287025,-0.00424974,-8.42212,25.0,0.0276754,-0.00464466,-9.52693,35.0,0.0262644,-0.00542329,-11.6669,55.0,0.0246628,-0.00592162,-13.5013,80.0,0.0227975,-0.00648702,-15.8837,120.0,0.0205733,-0.00671068,-18.0655,180.0,0.0179659,-0.006337,-19.429,270.0,0.0154647,-0.00504253,-18.0595,405.0,0.0136121,-0.00299851,-12.4228,605.0,0.0126549,-0.000370624,-1.67755,900.0,0.0125749,0.00244205,10.9901,1340.0,0.0132256,0.00532059,21.9147,2000.0
73.4437,3,3.8428,2.899,,0,,1.50889,26.34,0.00861135,0.345517,0.0,1.0,0.0312588,-0.0018895,-3.45915,5.0,0.0300643,-0.00277052,-5.26513,10.0,0.0295983,-0.00315492,-6.08426,15.0,0.0291842,-0.0037812,-7.3823,20.0,0.0286426,-0.00428813,-8.5146,25.0,0.0275382,-0.00446568,-9.21109,35.0,0.0261684,-0.00532509,-11.5022,55.0,0.0246888,-0.00596152,-13.5752,80.0,0.022735,-0.00643394,-15.8013,120.0,0.0205223,-0.00664852,-17.9506,180.0,0.0179282,-0.00631072,-19.3921,270.0,0.0154712,-0.00505747,-18.1023,405.0,0.0136206,-0.0029886,-12.3756,605.0,0.0126594,-0.000389753,-1.76344,900.0,0.0125772,0.00244736,11.0114,1340.0,0.0132128,0.00531763,21.9229,2000.0
91.3952,3,3.8532,2.899,,0,,1.52333,26.51,0.00847098,0.339303,0.0,1.0,0.0311562,-0.00158785,-2.91751,5.0,0.0302891,-0.00253304,-4.78044,10.0,0.0295094,-0.00314235,-6.07831,15.0,0.0290934,-0.0035894,-7.03334,20.0,0.0283519,-0.00391264,-7.85735,25.0,0.0273504,-0.00451507,-9.37398,35.0,0.0260107,-0.0052721,-11.458,55.0,0.0246003,-0.00583827,-13.3507,80.0,0.0227648,-0.0063492,-15.584,120.0,0.0204926,-0.00661347,-17.8862,180.0,0.0179092,-0.00626619,-19.2843,270.0,0.015443,-0.00499008,-17.9072,405.0,0.0136244,-0.0029477,-12.208,605.0,0.0126405,-0.000351393,-1.59236,900.0,0.0125479,0.0024528,11.0605,1340.0,0.0131872,0.00532226,21.9786,2000.0
109.431,3,3.8629,2.899,,0,,1.53778,26.66,0.00852155,0.34241,0.0,1.0,0.0308259,-0.00159082,-2.95422,5.0,0.0300732,-0.00231051,-4.39338,10.0,0.029227,-0.00311292,-6.07956,15.0,0.028819,-0.00347445,-6.87447,20.0,0.0284213,-0.00413497,-8.27781,25.0,0.0273724,-0.00448513,-9.30557,35.0,0.0259091,-0.00525691,-11.4695,55.0,0.0244657,-0.00577745,-13.2867,80.0,0.0226955,-0.00631727,-15.5545,120.0,0.0204409,-0.00654256,-17.7484,180.0,0.0178889,-0.00619546,-19.1025,270.0,0.0153992,-0.00499301,-17.9646,405.0,0.0136011,-0.00294096,-12.2012,605.0,0.0126235,-0.000347661,-1.57757,900.0,0.0125451,0.00245526,11.0737,1340.0,0.0131867,0.00534293,22.0566,2000.0
127.514,3,3.8729,2.899,,0,,1.55222,26.81,0.00844483,0.348935,0.0,1.0,0.0303408,-0.0016386,-3.09135,5.0,0.0293695,-0.00274631,-5.34213,10.0,0.0292692,-0.00324747,-6.33119,15.0,0.0285006,-0.00324879,-6.50308,20.0,0.0279493,-0.00363148,-7.40303,25.0,0.0270261,-0.00420744,-8.84882,35.0,0.0260175,-0.00511223,-11.1165,55.0,0.0243073,-0.0056784,-13.149,80.0,0.0225917,-0.0062384,-15.4368,120.0,0.0203973,-0.00647439,-17.6102,180.0,0.0178671,-0.00618025,-19.0805,270.0,0.0154031,-0.00494471,-17.7977,405.0,0.0135762,-0.00292076,-12.1414,605.0,0.0126021,-0.00034268,-1.55762,900.0,0.0125443,0.00247493,11.1608,1340.0,0.0131789,0.00531894,21.9787,2000.0
145.505,3,3.8825,2.899,,0,,1.56694,26.94,0.00850412,0.345828,0.0,1.0,0.0301891,-0.00169794,-3.21913,5.0,0.0297138,-0.00235064,-4.52321,10.0,0.0287833,-0.00291549,-5.78381,15.0,0.0284298,-0.00350289,-7.02412,20.0,0.0278925,-0.00348242,-7.11663,25.0,0.026986,-0.0042951,-9.04337,35.0,0.0257735,-0.00498804,-10.9533,55.0,0.0243354,-0.00566401,-13.1022,80.0,0.0225428,-0.00615812,-15.279,120.0,0.0203169,-0.0063912,-17.4623,180.0,0.017862,-0.00612717,-18.9334,270.0,0.0154211,-0.00493291,-17.7384,405.0,0.0135596,-0.0028747,-11.9698,605.0,0.0126244,-0.000327641,-1.48667,900.0,0.012522,0.00248231,11.2127,1340.0,0.0131614,0.00534465,22.1014,2000.0
163.533,3,3.8917,2.9,,0,,1.58139,27.06,0.00846314,0.347381,0.0,1.0,0.0297792,-0.00194397,-3.73492,5.0,0.0291508,-0.00214298,-4.20446,10.0,0.0287642,-0.00308208,-6.1159,15.0,0.0283468,-0.00324781,-6.53612,20.0,0.0277268,-0.00347249,-7.13853,25.0,0.0269713,-0.0040741,-8.58978,35.0,0.0255488,-0.00487897,-10.8114,55.0,0.0242259,-0.00546011,-12.7013,80.0,0.0225468,-0.00604161,-15.0005,120.0,0.0203232,-0.00634381,-17.3355,180.0,0.0178359,-0.00605324,-18.7465,270.0,0.0153916,-0.00489395,-17.6387,405.0,0.0135493,-0.00285191,-11.8863,605.0,0.012578,-0.000317449,-1.44575,900.0,0.0125108,0.00249618,11.2836,1340.0,0.0131493,0.00535885,22.1727,2000.0
181.569,3,3.7724,-0.965,,0,,1.59472,27.17,0.0111799,0.34241,0.0,1.0,0.0297461,-0.00209803,-4.03447,5.0,0.0289626,-0.00216212,-4.26932,10.0,0.0283997,-0.00288164,-5.7938,15.0,0.0283849,-0.00328762,-6.60672,20.0,0.027523,-0.00367149,-7.59825,25.0,0.0266814,-0.00426499,-9.08182,35.0,0.025564,-0.00487312,-10.7925,55.0,0.0241491,-0.00538398,-12.5684,80.0,0.0224061,-0.00590567,-14.7659,120.0,0.0202253,-0.00628545,-17.2638,180.0,0.017822,-0.00602982,-18.6925,270.0,0.0153891,-0.00485501,-17.5097,405.0,0.0135852,-0.00282846,-11.7611,605.0,0.0125747,-0.000287769,-1.31098,900.0,0.0125071,0.0025095,11.3455,1340.0,0.01315,0.00534748,22.1292,2000.0