File: 00_Test_Data/EIS_Batteryname_0.0_Temperature_0.0°C_0.25C_precharge_0.0%25SOC_1.csv
Time [s],Channel,Voltage [V],Current [A],Ah-Step [Ah],Ah-Step Counter [Ah],SOC [%],Ah-Step BaSyTec [Ah],Temperature [Â°C],BatteryVoltagePeakPeak,BatteryCurrentPeakPeak,Capacity [mAh],C-Rate,ReZf_5.0Hz,lmZf_5.0Hz,PhaseZ_5.0Hz,Frequency_5.0Hz,ReZf_10.0Hz,lmZf_10.0Hz,PhaseZ_10.0Hz,Frequency_10.0Hz,ReZf_15.0Hz,lmZf_15.0Hz,PhaseZ_15.0Hz,Frequency_15.0Hz,ReZf_20.0Hz,lmZf_20.0Hz,PhaseZ_20.0Hz,Frequency_20.0Hz,ReZf_25.0Hz,lmZf_25.0Hz,PhaseZ_25.0Hz,Frequency_25.0Hz,ReZf_35.0Hz,lmZf_35.0Hz,PhaseZ_35.0Hz,Frequency_35.0Hz,ReZf_55.0Hz,lmZf_55.0Hz,PhaseZ_55.0Hz,Frequency_55.0Hz,ReZf_80.0Hz,lmZf_80.0Hz,PhaseZ_80.0Hz,Frequency_80.0Hz,ReZf_120.0Hz,lmZf_120.0Hz,PhaseZ_120.0Hz,Frequency_120.0Hz,ReZf_180.0Hz,lmZf_180.0Hz,PhaseZ_180.0Hz,Frequency_180.0Hz,ReZf_270.0Hz,lmZf_270.0Hz,PhaseZ_270.0Hz,Frequency_270.0Hz,ReZf_405.0Hz,lmZf_405.0Hz,PhaseZ_405.0Hz,Frequency_405.0Hz,ReZf_605.0Hz,lmZf_605.0Hz,PhaseZ_605.0Hz,Frequency_605.0Hz,ReZf_900.0Hz,lmZf_900.0Hz,PhaseZ_900.0Hz,Frequency_900.0Hz,ReZf_1340.0Hz,lmZf_1340.0Hz,PhaseZ_1340.0Hz,Frequency_1340.0Hz,ReZf_2000.0Hz,lmZf_2000.0Hz,PhaseZ_2000.0Hz,Frequency_2000.0Hz
75.5404,3,3.7463,0.723,,0,,1.465,25.7,0.00853725,0.34676,0.0,0.25,0.0326619,-0.00275911,-4.82859,5.0,0.0312161,-0.00304503,-5.5714,10.0,0.0304518,-0.00368335,-6.89681,15.0,0.0299982,-0.00427467,-8.1099,20.0,0.028982,-0.00459988,-9.01848,25.0,0.0281246,-0.00494622,-9.97451,35.0,0.0265559,-0.00571314,-12.1414,55.0,0.0250582,-0.00623911,-13.9815,80.0,0.0230707,-0.0067426,-16.2914,120.0,0.0206775,-0.00695847,-18.5993,180.0,0.0180678,-0.00656754,-19.9759,270.0,0.0155886,-0.00519214,-18.4215,405.0,0.0136987,-0.00309163,-12.7179,605.0,0.0127211,-0.000450689,-2.02906,900.0,0.012645,0.00240591,10.7727,1340.0,0.0132845,0.00527972,21.6746,2000.0
145.385,3,3.7583,0.724,,0,,1.47917,25.76,0.00850063,0.341478,0.0,0.25,0.0319349,-0.00223788,-4.00853,5.0,0.0310666,-0.00286363,-5.26647,10.0,0.030442,-0.00345574,-6.47643,15.0,0.0297175,-0.00395122,-7.5736,20.0,0.0292281,-0.00434065,-8.44722,25.0,0.0281567,-0.00488269,-9.83789,35.0,0.0265793,-0.00565513,-12.0114,55.0,0.0250083,-0.00618346,-13.8882,80.0,0.0231299,-0.00674493,-16.2572,120.0,0.0206944,-0.00691264,-18.4711,180.0,0.0180308,-0.00655507,-19.9787,270.0,0.0155229,-0.00520612,-18.5406,405.0,0.0136798,-0.00307405,-12.6648,605.0,0.012691,-0.000430069,-1.94088,900.0,0.0126184,0.00241989,10.8561,1340.0,0.0132653,0.00529319,21.7532,2000.0
217.38,3,3.7661,0.723,,0,,1.49361,25.82,0.00824517,0.344274,0.0,0.25,0.031711,-0.0023829,-4.29736,5.0,0.0309097,-0.0025225,-4.66549,10.0,0.0305092,-0.00341096,-6.37922,15.0,0.0296845,-0.00386705,-7.42222,20.0,0.0288115,-0.00436181,-8.6087,25.0,0.0280123,-0.00476803,-9.65983,35.0,0.0265097,-0.00558713,-11.9014,55.0,0.0249978,-0.0061145,-13.7447,80.0,0.023015,-0.00665373,-16.1248,120.0,0.0206481,-0.00681037,-18.2541,180.0,0.0180362,-0.00649919,-19.8161,270.0,0.0155357,-0.00516564,-18.392,405.0,0.0136614,-0.003052,-12.5933,605.0,0.0126805,-0.000411597,-1.85911,900.0,0.012615,0.00241506,10.8378,1340.0,0.0132655,0.00528689,21.7295,2000.0
289.437,3,3.7721,0.723,,0,,1.50806,25.88,0.00857038,0.341788,0.0,0.25,0.0313918,-0.00251368,-4.57817,5.0,0.0306745,-0.002801,-5.21742,10.0,0.0304272,-0.00362051,-6.78567,15.0,0.0298958,-0.00393647,-7.50115,20.0,0.0288308,-0.00436197,-8.60334,25.0,0.0277195,-0.00471835,-9.66019,35.0,0.0263941,-0.00534603,-11.4502,55.0,0.0249275,-0.00612033,-13.7947,80.0,0.0229525,-0.00654288,-15.9108,120.0,0.0206817,-0.00679663,-18.1921,180.0,0.0180513,-0.00646128,-19.6943,270.0,0.0154832,-0.00513686,-18.3543,405.0,0.0136553,-0.00304644,-12.5765,605.0,0.0126856,-0.000399965,-1.80588,900.0,0.012618,0.002421,10.8612,1340.0,0.0132632,0.00530836,21.8128,2000.0
361.479,3,3.7774,0.723,,0,,1.5225,25.94,0.00818327,0.336506,0.0,0.25,0.0313423,-0.000678733,-1.24057,5.0,0.030979,-0.00285603,-5.26735,10.0,0.0298471,-0.00345401,-6.60111,15.0,0.0294604,-0.00386742,-7.47875,20.0,0.0288473,-0.00435845,-8.59167,25.0,0.0276615,-0.00440484,-9.04785,35.0,0.0265636,-0.00536726,-11.423,55.0,0.0248406,-0.00599328,-13.5645,80.0,0.0229862,-0.00657517,-15.9631,120.0,0.0206188,-0.00679719,-18.2453,180.0,0.0180221,-0.00644625,-19.6814,270.0,0.0155442,-0.00515506,-18.3475,405.0,0.013635,-0.00302323,-12.5017,605.0,0.0126778,-0.000422837,-1.91026,900.0,0.0126095,0.00242396,10.8814,1340.0,0.0132547,0.00529645,21.7811,2000.0
433.399,3,3.7824,0.723,,0,,1.53694,25.97,0.00827656,0.346138,0.0,0.25,0.0311912,-0.00177552,-3.25798,5.0,0.0304216,-0.00262974,-4.94054,10.0,0.0302245,-0.00347832,-6.56487,15.0,0.0293705,-0.00374999,-7.27609,20.0,0.0286689,-0.00416868,-8.27327,25.0,0.0279762,-0.00470173,-9.54006,35.0,0.0262591,-0.00538889,-11.5972,55.0,0.0248799,-0.00608418,-13.7415,80.0,0.0229096,-0.00645908,-15.7452,120.0,0.0206035,-0.00675116,-18.1424,180.0,0.0180159,-0.00641197,-19.5909,270.0,0.0155079,-0.00513137,-18.3088,405.0,0.0136483,-0.00299803,-12.389,605.0,0.012651,-0.000386492,-1.74986,900.0,0.0126047,0.00244686,10.9858,1340.0,0.0132423,0.00531494,21.8686,2000.0
505.433,3,3.7875,0.723,,0,,1.55139,26.01,0.00830359,0.347692,0.0,0.25,0.031197,-0.00213611,-3.91703,5.0,0.030667,-0.00256116,-4.77399,10.0,0.0298896,-0.00313271,-5.98329,15.0,0.0293491,-0.00371756,-7.21905,20.0,0.0288362,-0.00402618,-7.94839,25.0,0.0276752,-0.00463045,-9.49841,35.0,0.0262874,-0.00537707,-11.5603,55.0,0.0247805,-0.00598148,-13.5704,80.0,0.0228904,-0.00648141,-15.8095,120.0,0.0205527,-0.00674123,-18.1594,180.0,0.0180248,-0.0063739,-19.4745,270.0,0.0155299,-0.00508231,-18.1212,405.0,0.0136553,-0.00298702,-12.3388,605.0,0.0126648,-0.000409815,-1.85337,900.0,0.0126007,0.00243569,10.9402,1340.0,0.013234,0.00530912,21.8594,2000.0
577.454,3,3.7926,0.723,,0,,1.56611,26.04,0.00839862,0.347381,0.0,0.25,0.0307436,-0.00192808,-3.58859,5.0,0.0306382,-0.00253599,-4.73172,10.0,0.0300037,-0.00302406,-5.75539,15.0,0.0292527,-0.00366578,-7.14275,20.0,0.0286554,-0.00395789,-7.86393,25.0,0.0276018,-0.00455634,-9.37353,35.0,0.0262793,-0.00527291,-11.3457,55.0,0.0247295,-0.00592659,-13.4771,80.0,0.0228914,-0.0064125,-15.649,120.0,0.0205599,-0.00671188,-18.0795,180.0,0.0180018,-0.00637073,-19.4886,270.0,0.0155019,-0.00509042,-18.1789,405.0,0.0136332,-0.00298804,-12.3622,605.0,0.0126829,-0.000385445,-1.74074,900.0,0.0125853,0.00243769,10.9621,1340.0,0.0132232,0.00532064,21.9185,2000.0
649.497,3,3.7978,0.723,,0,,1.58056,26.07,0.00840559,0.345517,0.0,0.25,0.031513,-0.00182808,-3.32003,5.0,0.0306835,-0.00262267,-4.88548,10.0,0.0296218,-0.00303646,-5.85282,15.0,0.0291994,-0.00364112,-7.108,20.0,0.0283105,-0.00393899,-7.92102,25.0,0.0277099,-0.00451126,-9.2468,35.0,0.0262586,-0.00524843,-11.303,55.0,0.024824,-0.00582922,-13.2149,80.0,0.0228544,-0.0063551,-15.5396,120.0,0.0205487,-0.00668573,-18.0228,180.0,0.0179835,-0.00632491,-19.3771,270.0,0.0154807,-0.00507527,-18.1515,405.0,0.0136349,-0.00300586,-12.4322,605.0,0.0126487,-0.00038735,-1.75406,900.0,0.0125789,0.00245046,11.0236,1340.0,0.0132273,0.00532387,21.9244,2000.0
721.487,3,3.8027,0.723,,0,,1.595,26.08,0.00848581,0.343963,0.0,0.25,0.0309944,-0.00167044,-3.08496,5.0,0.030474,-0.00285299,-5.34848,10.0,0.029712,-0.00313205,-6.01753,15.0,0.0288407,-0.00366715,-7.24639,20.0,0.0286005,-0.00388343,-7.73243,25.0,0.0274891,-0.00461984,-9.54004,35.0,0.0261613,-0.00535728,-11.5729,55.0,0.0246458,-0.00592918,-13.5269,80.0,0.0227582,-0.00634584,-15.5805,120.0,0.0204949,-0.00666618,-18.0177,180.0,0.0179544,-0.00631485,-19.3776,270.0,0.0154709,-0.00508481,-18.1942,405.0,0.0136186,-0.00298928,-12.3801,605.0,0.0126614,-0.000373269,-1.68864,900.0,0.0125765,0.00243356,10.9514,1340.0,0.0132293,0.00530932,21.8671,2000.0