File: 00_Test_Data/EIS_Batteryname_0.0_Temperature_0.0°C_0.33C_precharge_0.0%25SOC_1.csv
Time [s],Channel,Voltage [V],Current [A],Ah-Step [Ah],Ah-Step Counter [Ah],SOC [%],Ah-Step BaSyTec [Ah],Temperature [Â°C],BatteryVoltagePeakPeak,BatteryCurrentPeakPeak,Capacity [mAh],C-Rate,ReZf_5.0Hz,lmZf_5.0Hz,PhaseZ_5.0Hz,Frequency_5.0Hz,ReZf_10.0Hz,lmZf_10.0Hz,PhaseZ_10.0Hz,Frequency_10.0Hz,ReZf_15.0Hz,lmZf_15.0Hz,PhaseZ_15.0Hz,Frequency_15.0Hz,ReZf_20.0Hz,lmZf_20.0Hz,PhaseZ_20.0Hz,Frequency_20.0Hz,ReZf_25.0Hz,lmZf_25.0Hz,PhaseZ_25.0Hz,Frequency_25.0Hz,ReZf_35.0Hz,lmZf_35.0Hz,PhaseZ_35.0Hz,Frequency_35.0Hz,ReZf_55.0Hz,lmZf_55.0Hz,PhaseZ_55.0Hz,Frequency_55.0Hz,ReZf_80.0Hz,lmZf_80.0Hz,PhaseZ_80.0Hz,Frequency_80.0Hz,ReZf_120.0Hz,lmZf_120.0Hz,PhaseZ_120.0Hz,Frequency_120.0Hz,ReZf_180.0Hz,lmZf_180.0Hz,PhaseZ_180.0Hz,Frequency_180.0Hz,ReZf_270.0Hz,lmZf_270.0Hz,PhaseZ_270.0Hz,Frequency_270.0Hz,ReZf_405.0Hz,lmZf_405.0Hz,PhaseZ_405.0Hz,Frequency_405.0Hz,ReZf_605.0Hz,lmZf_605.0Hz,PhaseZ_605.0Hz,Frequency_605.0Hz,ReZf_900.0Hz,lmZf_900.0Hz,PhaseZ_900.0Hz,Frequency_900.0Hz,ReZf_1340.0Hz,lmZf_1340.0Hz,PhaseZ_1340.0Hz,Frequency_1340.0Hz,ReZf_2000.0Hz,lmZf_2000.0Hz,PhaseZ_2000.0Hz,Frequency_2000.0Hz
56.2889,3,3.7304,0.964,,0,,1.465,25.81,0.0086968,0.341478,0.0,0.33,0.0322879,-0.00119163,-2.11363,5.0,0.0316467,-0.00321557,-5.80182,10.0,0.0304774,-0.0036095,-6.75418,15.0,0.0295177,-0.00379797,-7.33183,20.0,0.0290629,-0.00445429,-8.71357,25.0,0.0279425,-0.00494093,-10.0277,35.0,0.0265206,-0.00564387,-12.0139,55.0,0.0250479,-0.00622215,-13.9504,80.0,0.0230483,-0.00667512,-16.1518,120.0,0.0206782,-0.00686696,-18.3707,180.0,0.0180685,-0.00649975,-19.7851,270.0,0.0155422,-0.00516521,-18.3834,405.0,0.0136477,-0.00307892,-12.7131,605.0,0.01268,-0.000447347,-2.02054,900.0,0.0126137,0.00241288,10.8294,1340.0,0.0132657,0.00530265,21.7878,2000.0
110.467,3,3.7404,0.964,,0,,1.47944,25.89,0.0086253,0.342099,0.0,0.33,0.0318984,-0.00166307,-2.98449,5.0,0.031055,-0.00287317,-5.28588,10.0,0.0299929,-0.0033347,-6.34426,15.0,0.0292409,-0.0039331,-7.66069,20.0,0.029244,-0.00442736,-8.60885,25.0,0.0279143,-0.00468476,-9.52699,35.0,0.0265884,-0.00562956,-11.9547,55.0,0.024935,-0.00611754,-13.7846,80.0,0.022973,-0.00668288,-16.2198,120.0,0.0206663,-0.00691816,-18.5082,180.0,0.018039,-0.00648981,-19.7869,270.0,0.0155075,-0.00516483,-18.4205,405.0,0.0136499,-0.00304529,-12.5768,605.0,0.0126826,-0.000430276,-1.9431,900.0,0.0126191,0.00242886,10.8948,1340.0,0.013258,0.00529917,21.7864,2000.0
165.03,3,3.7487,0.964,,0,,1.49417,25.96,0.00888861,0.34241,0.0,0.33,0.0310658,-0.00168226,-3.09962,5.0,0.0311116,-0.00250477,-4.60291,10.0,0.030631,-0.00341098,-6.35411,15.0,0.0299921,-0.00374816,-7.12341,20.0,0.0290871,-0.0041285,-8.07836,25.0,0.0279837,-0.00488016,-9.89248,35.0,0.0264501,-0.00556418,-11.8798,55.0,0.0249911,-0.0061583,-13.843,80.0,0.0229565,-0.00657418,-15.9804,120.0,0.0206649,-0.00685286,-18.3465,180.0,0.018022,-0.00649946,-19.8314,270.0,0.015494,-0.00514945,-18.3842,405.0,0.013637,-0.00302735,-12.5164,605.0,0.0126786,-0.000424163,-1.91611,900.0,0.012611,0.0024134,10.8338,1340.0,0.013251,0.00530732,21.8273,2000.0
219.634,3,3.7575,0.964,,0,,1.50889,26.03,0.00842739,0.341167,0.0,0.33,0.0317989,-0.00225162,-4.05023,5.0,0.0308229,-0.00296212,-5.48933,10.0,0.0297951,-0.0035732,-6.83857,15.0,0.0291723,-0.00393682,-7.68568,20.0,0.0290242,-0.00408535,-8.01212,25.0,0.0277474,-0.00474162,-9.69733,35.0,0.0265677,-0.00544357,-11.5793,55.0,0.0247919,-0.00614308,-13.9168,80.0,0.0230322,-0.00661864,-16.0328,120.0,0.0206369,-0.00678909,-18.2101,180.0,0.0180085,-0.00646526,-19.7487,270.0,0.0154737,-0.00515271,-18.4176,405.0,0.0136296,-0.0030103,-12.4547,605.0,0.0126795,-0.000417718,-1.88688,900.0,0.0126107,0.0024184,10.8561,1340.0,0.0132376,0.00529774,21.8115,2000.0
274.132,3,3.7661,0.964,,0,,1.52333,26.08,0.00824692,0.341167,0.0,0.33,0.0316752,-0.00212284,-3.83417,5.0,0.0310718,-0.00288701,-5.30836,10.0,0.0299644,-0.00363291,-6.91285,15.0,0.0294622,-0.0041943,-8.1023,20.0,0.0286694,-0.00435218,-8.63193,25.0,0.0277575,-0.00464265,-9.49524,35.0,0.0264805,-0.00549753,-11.7284,55.0,0.0248949,-0.00611039,-13.7905,80.0,0.0229838,-0.00661201,-16.0495,120.0,0.0206086,-0.00682439,-18.3219,180.0,0.0179769,-0.0064524,-19.7444,270.0,0.0154867,-0.00509645,-18.2156,405.0,0.0136524,-0.00301795,-12.4651,605.0,0.0126802,-0.000422014,-1.90618,900.0,0.0125807,0.00242396,10.9057,1340.0,0.0132409,0.00529625,21.801,2000.0
328.716,3,3.7761,0.964,,0,,1.53806,26.12,0.0080429,0.339924,0.0,0.33,0.0323626,-0.00158576,-2.80524,5.0,0.0305423,-0.00253629,-4.74706,10.0,0.030333,-0.00313108,-5.89341,15.0,0.0292445,-0.00399542,-7.77966,20.0,0.0285915,-0.00407972,-8.12072,25.0,0.0278958,-0.00482029,-9.80369,35.0,0.0263081,-0.00544161,-11.6863,55.0,0.024825,-0.00597394,-13.5305,80.0,0.0228885,-0.00650426,-15.8637,120.0,0.0205916,-0.00678478,-18.2366,180.0,0.0179617,-0.00637957,-19.5538,270.0,0.0155154,-0.00513341,-18.3073,405.0,0.0136378,-0.00300883,-12.4415,605.0,0.0126577,-0.000395942,-1.79167,900.0,0.0125963,0.00241367,10.8474,1340.0,0.0132334,0.00529777,21.8179,2000.0
383.286,3,3.7872,0.964,,0,,1.5525,26.17,0.00822774,0.349556,0.0,0.33,0.0315649,-0.00197347,-3.57753,5.0,0.0307306,-0.00265348,-4.93505,10.0,0.0298133,-0.00349123,-6.6791,15.0,0.0296495,-0.00392027,-7.53199,20.0,0.0286115,-0.00417309,-8.29829,25.0,0.027683,-0.00479523,-9.82722,35.0,0.0261641,-0.00538332,-11.6265,55.0,0.0248528,-0.00603821,-13.6559,80.0,0.0229642,-0.00637019,-15.5038,120.0,0.0205292,-0.00676165,-18.2302,180.0,0.0179571,-0.00635873,-19.4994,270.0,0.0154931,-0.00508033,-18.1547,405.0,0.0136015,-0.00299731,-12.4274,605.0,0.0126611,-0.000393566,-1.78044,900.0,0.0125853,0.00244122,10.9775,1340.0,0.0132148,0.0053027,21.864,2000.0
437.815,3,3.798,0.964,,0,,1.56722,26.2,0.00861833,0.350178,0.0,0.33,0.0306235,-0.00189573,-3.54235,5.0,0.0302741,-0.00292941,-5.52691,10.0,0.0296789,-0.00349068,-6.70803,15.0,0.0292474,-0.00387352,-7.54435,20.0,0.0287767,-0.00429467,-8.48826,25.0,0.0276438,-0.00460145,-9.45053,35.0,0.0260627,-0.00535813,-11.6173,55.0,0.0247171,-0.00595882,-13.5543,80.0,0.0228353,-0.00648516,-15.8544,120.0,0.0205688,-0.00669322,-18.0252,180.0,0.0179701,-0.00632877,-19.4014,270.0,0.0154943,-0.00506557,-18.1041,405.0,0.0136103,-0.00296936,-12.3074,605.0,0.0126529,-0.000367188,-1.66226,900.0,0.0125914,0.00245214,11.0203,1340.0,0.0132154,0.0053087,21.8855,2000.0
492.398,3,3.8067,0.964,,0,,1.58194,26.22,0.00835677,0.344895,0.0,0.33,0.0299109,-0.00181627,-3.47488,5.0,0.0292685,-0.00263535,-5.14507,10.0,0.0295593,-0.00350471,-6.76172,15.0,0.0289337,-0.00352461,-6.94537,20.0,0.0281677,-0.00364707,-7.37746,25.0,0.0275195,-0.00460491,-9.49943,35.0,0.0261216,-0.00527216,-11.4108,55.0,0.0245721,-0.00588601,-13.4709,80.0,0.0227328,-0.00638669,-15.6925,120.0,0.0204634,-0.00663214,-17.9574,180.0,0.0179435,-0.00628193,-19.2949,270.0,0.0154592,-0.00502453,-18.0052,405.0,0.013611,-0.00297024,-12.3103,605.0,0.0126454,-0.000379674,-1.71977,900.0,0.0125815,0.00244596,11.0016,1340.0,0.013224,0.00531386,21.892,2000.0