File: 00_Test_Data/EIS_Batteryname_0.0_Temperature_0.0°C_3.0C_precharge_0.0%25SOC_1.csv
Time [s],Channel,Voltage [V],Current [A],Ah-Step [Ah],Ah-Step Counter [Ah],SOC [%],Ah-Step BaSyTec [Ah],Temperature [Â°C],BatteryVoltagePeakPeak,BatteryCurrentPeakPeak,Capacity [mAh],C-Rate,ReZf_5.0Hz,lmZf_5.0Hz,PhaseZ_5.0Hz,Frequency_5.0Hz,ReZf_10.0Hz,lmZf_10.0Hz,PhaseZ_10.0Hz,Frequency_10.0Hz,ReZf_15.0Hz,lmZf_15.0Hz,PhaseZ_15.0Hz,Frequency_15.0Hz,ReZf_20.0Hz,lmZf_20.0Hz,PhaseZ_20.0Hz,Frequency_20.0Hz,ReZf_25.0Hz,lmZf_25.0Hz,PhaseZ_25.0Hz,Frequency_25.0Hz,ReZf_35.0Hz,lmZf_35.0Hz,PhaseZ_35.0Hz,Frequency_35.0Hz,ReZf_55.0Hz,lmZf_55.0Hz,PhaseZ_55.0Hz,Frequency_55.0Hz,ReZf_80.0Hz,lmZf_80.0Hz,PhaseZ_80.0Hz,Frequency_80.0Hz,ReZf_120.0Hz,lmZf_120.0Hz,PhaseZ_120.0Hz,Frequency_120.0Hz,ReZf_180.0Hz,lmZf_180.0Hz,PhaseZ_180.0Hz,Frequency_180.0Hz,ReZf_270.0Hz,lmZf_270.0Hz,PhaseZ_270.0Hz,Frequency_270.0Hz,ReZf_405.0Hz,lmZf_405.0Hz,PhaseZ_405.0Hz,Frequency_405.0Hz,ReZf_605.0Hz,lmZf_605.0Hz,PhaseZ_605.0Hz,Frequency_605.0Hz,ReZf_900.0Hz,lmZf_900.0Hz,PhaseZ_900.0Hz,Frequency_900.0Hz,ReZf_1340.0Hz,lmZf_1340.0Hz,PhaseZ_1340.0Hz,Frequency_1340.0Hz,ReZf_2000.0Hz,lmZf_2000.0Hz,PhaseZ_2000.0Hz,Frequency_2000.0Hz
7.79715,3,4.0134,8.699,,0,,1.46833,26.22,0.00989211,0.341167,0.0,3.0,0.031313,-0.00136216,-2.49088,5.0,0.0303633,-0.00237319,-4.46914,10.0,0.0292322,-0.0030917,-6.03735,15.0,0.0284823,-0.00336834,-6.74451,20.0,0.0281338,-0.00392974,-7.95166,25.0,0.0269982,-0.00436829,-9.19078,35.0,0.0259631,-0.00499409,-10.8881,55.0,0.0243788,-0.00567583,-13.106,80.0,0.0226431,-0.0061816,-15.2698,120.0,0.0204554,-0.00652655,-17.6959,180.0,0.0179029,-0.00616322,-18.9964,270.0,0.015482,-0.00495008,-17.7307,405.0,0.0136447,-0.00292364,-12.0939,605.0,0.0126543,-0.00036251,-1.64092,900.0,0.0125937,0.0024527,11.0208,1340.0,0.0132025,0.00529081,21.8381,2000.0
13.3987,3,4.0375,8.699,,0,,1.48194,26.39,0.00928094,0.34676,0.0,3.0,0.031282,-0.00123011,-2.25189,5.0,0.029816,-0.00245093,-4.69925,10.0,0.0290041,-0.00249013,-4.90706,15.0,0.0283222,-0.00355004,-7.14446,20.0,0.0277386,-0.003929,-8.06195,25.0,0.0270732,-0.00419895,-8.81611,35.0,0.0257911,-0.0050078,-10.9883,55.0,0.0244037,-0.00553329,-12.7752,80.0,0.0226508,-0.00608719,-15.0423,120.0,0.0204172,-0.00641786,-17.4498,180.0,0.0179126,-0.00612287,-18.8714,270.0,0.0154707,-0.00495572,-17.7618,405.0,0.0136158,-0.00290081,-12.0269,605.0,0.0126509,-0.000354287,-1.60415,900.0,0.012567,0.0024512,11.037,1340.0,0.0131659,0.00529638,21.9139,2000.0
19.4651,3,4.0581,8.7,,0,,1.49639,26.64,0.0090778,0.347692,0.0,3.0,0.0308328,-0.00178012,-3.30428,5.0,0.0297951,-0.00252282,-4.83982,10.0,0.028943,-0.0030618,-6.0387,15.0,0.028104,-0.00315569,-6.40668,20.0,0.0276657,-0.00362027,-7.45525,25.0,0.027031,-0.00406562,-8.55349,35.0,0.0256363,-0.00496627,-10.9635,55.0,0.0242994,-0.00551248,-12.7816,80.0,0.0225396,-0.00596877,-14.8322,120.0,0.0203905,-0.00638049,-17.3757,180.0,0.0178673,-0.00607083,-18.7664,270.0,0.0154896,-0.00486759,-17.4453,405.0,0.0135696,-0.00290412,-12.08,605.0,0.0126281,-0.000343404,-1.5577,900.0,0.012535,0.00247137,11.1533,1340.0,0.0131525,0.00531563,22.0062,2000.0
25.418,3,4.0759,8.699,,0,,1.51083,26.95,0.00918416,0.348003,0.0,3.0,0.0298413,-0.00194556,-3.73022,5.0,0.0291119,-0.00254267,-4.99163,10.0,0.0287567,-0.00290353,-5.76554,15.0,0.0281641,-0.0033469,-6.77699,20.0,0.0278813,-0.00363672,-7.43147,25.0,0.0266677,-0.00396804,-8.46327,35.0,0.0255073,-0.00475269,-10.5547,55.0,0.024114,-0.00544255,-12.7186,80.0,0.0225194,-0.00592755,-14.7469,120.0,0.0202882,-0.00631445,-17.2881,180.0,0.0178612,-0.00603661,-18.6739,270.0,0.0154077,-0.00486055,-17.5085,405.0,0.0135864,-0.00286406,-11.9039,605.0,0.012617,-0.000328715,-1.4924,900.0,0.0125259,0.00246607,11.1378,1340.0,0.0131349,0.00532408,22.0646,2000.0
31.4336,3,4.0926,8.699,,0,,1.52583,27.29,0.00869331,0.340235,0.0,3.0,0.0298871,-0.0019808,-3.79179,5.0,0.0288238,-0.00175058,-3.47553,10.0,0.0282434,-0.00272777,-5.51655,15.0,0.027919,-0.00318627,-6.51074,20.0,0.0271543,-0.00345193,-7.24473,25.0,0.0264505,-0.00398011,-8.55731,35.0,0.0252708,-0.00472821,-10.5976,55.0,0.0240183,-0.00538832,-12.6445,80.0,0.0223079,-0.00589954,-14.8133,120.0,0.0202216,-0.00622035,-17.0984,180.0,0.0177756,-0.00595812,-18.5304,270.0,0.0153747,-0.00478322,-17.2814,405.0,0.0135617,-0.0028203,-11.7478,605.0,0.0125845,-0.000290523,-1.32248,900.0,0.0125086,0.00248145,11.2206,1340.0,0.0131154,0.00534305,22.1654,2000.0
37.4513,3,4.1072,8.699,,0,,1.54028,27.63,0.00878921,0.34676,0.0,3.0,0.0291764,-0.0012238,-2.40185,5.0,0.0288465,-0.00227882,-4.51688,10.0,0.0280162,-0.00253858,-5.1775,15.0,0.0273882,-0.00306089,-6.3769,20.0,0.0271669,-0.00391382,-8.19795,25.0,0.0264572,-0.00392539,-8.43926,35.0,0.0251508,-0.00462061,-10.4101,55.0,0.0239135,-0.00518709,-12.2385,80.0,0.0222924,-0.00574729,-14.4569,120.0,0.0202127,-0.00611935,-16.8436,180.0,0.0177802,-0.00587614,-18.2881,270.0,0.0153488,-0.00477293,-17.2738,405.0,0.0135531,-0.00281255,-11.7237,605.0,0.0125786,-0.00030136,-1.37243,900.0,0.0124776,0.0025063,11.3575,1340.0,0.0131033,0.00535312,22.2216,2000.0
43.4551,3,4.1204,8.699,,0,,1.55472,27.98,0.00899933,0.341478,0.0,3.0,0.0287432,-0.00207784,-4.13471,5.0,0.0282903,-0.0022755,-4.59863,10.0,0.0275914,-0.00257087,-5.32324,15.0,0.0272028,-0.00324718,-6.80716,20.0,0.0268279,-0.00347248,-7.3751,25.0,0.0259091,-0.00387961,-8.51616,35.0,0.0249731,-0.00443588,-10.0722,55.0,0.0238141,-0.00509888,-12.0852,80.0,0.0221064,-0.00573071,-14.5331,120.0,0.0201143,-0.00605562,-16.755,180.0,0.0176805,-0.00580418,-18.174,270.0,0.0153461,-0.00472133,-17.1009,405.0,0.0135199,-0.00278711,-11.6483,605.0,0.0125483,-0.000260006,-1.18702,900.0,0.0124501,0.0025134,11.4134,1340.0,0.0130919,0.00535727,22.2547,2000.0
49.4286,3,4.1313,8.699,,0,,1.56917,28.31,0.00824169,0.345206,0.0,3.0,0.0279916,-0.00150196,-3.0714,5.0,0.0280802,-0.00242714,-4.94015,10.0,0.0275242,-0.0024745,-5.13723,15.0,0.0269201,-0.00274569,-5.82369,20.0,0.026606,-0.00331755,-7.10762,25.0,0.0257247,-0.00356145,-7.88219,35.0,0.0248673,-0.00430199,-9.81489,55.0,0.023552,-0.00501123,-12.0119,80.0,0.0220485,-0.00561773,-14.2942,120.0,0.0200296,-0.00591533,-16.4534,180.0,0.0176484,-0.00573572,-18.0041,270.0,0.015323,-0.00466289,-16.9253,405.0,0.0134706,-0.00271216,-11.3837,605.0,0.0125246,-0.000238767,-1.09215,900.0,0.012421,0.00253683,11.5432,1340.0,0.0130392,0.00537025,22.3845,2000.0
55.4555,3,4.1404,8.699,,0,,1.58361,28.64,0.00829574,0.345206,0.0,3.0,0.0286096,-0.00107453,-2.15093,5.0,0.0279005,-0.00178496,-3.66055,10.0,0.0270346,-0.0025061,-5.29615,15.0,0.026339,-0.00256465,-5.5614,20.0,0.0263545,-0.00290566,-6.29161,25.0,0.0254385,-0.00360122,-8.05758,35.0,0.0245995,-0.00410908,-9.48309,55.0,0.0232511,-0.00475578,-11.5598,80.0,0.0217672,-0.00544294,-14.0391,120.0,0.0198961,-0.00573511,-16.0798,180.0,0.0175971,-0.00562318,-17.7214,270.0,0.0152485,-0.00457996,-16.7179,405.0,0.0134788,-0.00268386,-11.2613,605.0,0.0124845,-0.000196409,-0.901316,900.0,0.0124005,0.00254105,11.5804,1340.0,0.0130043,0.00538641,22.4994,2000.0
61.4785,3,3.8714,0.0,,0,,1.595,28.97,0.0139009,0.341478,0.0,3.0,0.0273878,-0.0015064,-3.14826,5.0,0.0271315,-0.00151235,-3.19044,10.0,0.0266599,-0.00222603,-4.77297,15.0,0.0261599,-0.00239704,-5.23541,20.0,0.0255496,-0.00297277,-6.63669,25.0,0.0252134,-0.00323807,-7.31824,35.0,0.0243667,-0.00400961,-9.34445,55.0,0.0232495,-0.00467366,-11.3662,80.0,0.021718,-0.00517415,-13.4005,120.0,0.0198454,-0.00564405,-15.8758,180.0,0.0175029,-0.00551213,-17.4806,270.0,0.0152295,-0.00449835,-16.4556,405.0,0.0134501,-0.00263014,-11.0644,605.0,0.012479,-0.000142214,-0.652931,900.0,0.0123734,0.00260081,11.8703,1340.0,0.0129944,0.00542534,22.6612,2000.0