File: 00_Test_Data/EIS_Batteryname_0.0_Temperature_0.0°C_0.5C_precharge_0.0%25SOC_1.csv
Time [s],Channel,Voltage [V],Current [A],Ah-Step [Ah],Ah-Step Counter [Ah],SOC [%],Ah-Step BaSyTec [Ah],Temperature [Â°C],BatteryVoltagePeakPeak,BatteryCurrentPeakPeak,Capacity [mAh],C-Rate,ReZf_5.0Hz,lmZf_5.0Hz,PhaseZ_5.0Hz,Frequency_5.0Hz,ReZf_10.0Hz,lmZf_10.0Hz,PhaseZ_10.0Hz,Frequency_10.0Hz,ReZf_15.0Hz,lmZf_15.0Hz,PhaseZ_15.0Hz,Frequency_15.0Hz,ReZf_20.0Hz,lmZf_20.0Hz,PhaseZ_20.0Hz,Frequency_20.0Hz,ReZf_25.0Hz,lmZf_25.0Hz,PhaseZ_25.0Hz,Frequency_25.0Hz,ReZf_35.0Hz,lmZf_35.0Hz,PhaseZ_35.0Hz,Frequency_35.0Hz,ReZf_55.0Hz,lmZf_55.0Hz,PhaseZ_55.0Hz,Frequency_55.0Hz,ReZf_80.0Hz,lmZf_80.0Hz,PhaseZ_80.0Hz,Frequency_80.0Hz,ReZf_120.0Hz,lmZf_120.0Hz,PhaseZ_120.0Hz,Frequency_120.0Hz,ReZf_180.0Hz,lmZf_180.0Hz,PhaseZ_180.0Hz,Frequency_180.0Hz,ReZf_270.0Hz,lmZf_270.0Hz,PhaseZ_270.0Hz,Frequency_270.0Hz,ReZf_405.0Hz,lmZf_405.0Hz,PhaseZ_405.0Hz,Frequency_405.0Hz,ReZf_605.0Hz,lmZf_605.0Hz,PhaseZ_605.0Hz,Frequency_605.0Hz,ReZf_900.0Hz,lmZf_900.0Hz,PhaseZ_900.0Hz,Frequency_900.0Hz,ReZf_1340.0Hz,lmZf_1340.0Hz,PhaseZ_1340.0Hz,Frequency_1340.0Hz,ReZf_2000.0Hz,lmZf_2000.0Hz,PhaseZ_2000.0Hz,Frequency_2000.0Hz
37.7767,3,3.748,1.449,,0,,1.46528,25.82,0.00856166,0.345206,0.0,0.5,0.0320502,-0.00204364,-3.64846,5.0,0.0313149,-0.00293238,-5.34968,10.0,0.0304808,-0.0033755,-6.31929,15.0,0.0299412,-0.00396317,-7.54012,20.0,0.0291447,-0.00439571,-8.5769,25.0,0.0279463,-0.00477158,-9.68933,35.0,0.0265553,-0.00549247,-11.6858,55.0,0.0249405,-0.00617633,-13.9091,80.0,0.0230155,-0.00663295,-16.0767,120.0,0.0206653,-0.00687755,-18.4078,180.0,0.018038,-0.00649822,-19.8117,270.0,0.0155534,-0.00515326,-18.3315,405.0,0.0136704,-0.00304388,-12.5528,605.0,0.0126749,-0.00041939,-1.89512,900.0,0.0126054,0.00242411,10.8855,1340.0,0.0132645,0.00529809,21.7727,2000.0
73.4077,3,3.7597,1.449,,0,,1.47944,25.92,0.00857648,0.339613,0.0,0.5,0.0315899,-0.002309,-4.18049,5.0,0.0308569,-0.00286616,-5.30672,10.0,0.030153,-0.00356295,-6.73896,15.0,0.0297477,-0.00407123,-7.79301,20.0,0.0289603,-0.00428312,-8.41283,25.0,0.0280957,-0.00498407,-10.0594,35.0,0.0263571,-0.0055305,-11.8504,55.0,0.0248853,-0.00609063,-13.7527,80.0,0.0229328,-0.00658436,-16.0196,120.0,0.0206055,-0.00679558,-18.2523,180.0,0.0179966,-0.00644722,-19.7098,270.0,0.0155053,-0.00512601,-18.2938,405.0,0.0136488,-0.00302811,-12.5089,605.0,0.0126698,-0.000412494,-1.86474,900.0,0.0126147,0.00240448,10.7917,1340.0,0.013261,0.00529534,21.7677,2000.0
109.418,3,3.7686,1.449,,0,,1.49389,26.01,0.00843524,0.341167,0.0,0.5,0.0315883,-0.00202785,-3.67314,5.0,0.0307166,-0.0026614,-4.95195,10.0,0.0303072,-0.00355066,-6.68207,15.0,0.0295136,-0.00396086,-7.64368,20.0,0.0288032,-0.00435395,-8.59587,25.0,0.027876,-0.00476405,-9.69823,35.0,0.0263068,-0.00563464,-12.0895,55.0,0.0248242,-0.00613804,-13.8884,80.0,0.0228999,-0.00662428,-16.1336,120.0,0.0206168,-0.00675997,-18.1536,180.0,0.0179983,-0.0064256,-19.6472,270.0,0.0154973,-0.00512137,-18.2871,405.0,0.0136392,-0.00304084,-12.5685,605.0,0.0126807,-0.000406235,-1.83488,900.0,0.0125935,0.00242323,10.8917,1340.0,0.0132491,0.00530241,21.8117,2000.0
145.408,3,3.7772,1.449,,0,,1.50833,26.1,0.00822861,0.348313,0.0,0.5,0.0315699,-0.0017347,-3.14513,5.0,0.0308465,-0.00240935,-4.46619,10.0,0.0299814,-0.00317606,-6.04703,15.0,0.0293275,-0.00390822,-7.59058,20.0,0.0287144,-0.00423458,-8.38908,25.0,0.0277721,-0.0047713,-9.74836,35.0,0.02634,-0.0055092,-11.8135,55.0,0.0247341,-0.00608845,-13.8288,80.0,0.0228694,-0.00653793,-15.9542,120.0,0.0205833,-0.00673831,-18.1268,180.0,0.0179762,-0.00641548,-19.6409,270.0,0.015482,-0.00513008,-18.333,405.0,0.0136392,-0.00300355,-12.4191,605.0,0.0126684,-0.00040358,-1.82467,900.0,0.0125958,0.00244588,10.9891,1340.0,0.0132281,0.00530997,21.8713,2000.0
181.437,3,3.7855,1.449,,0,,1.52278,26.2,0.00849627,0.344585,0.0,0.5,0.0321409,-0.00196992,-3.50728,5.0,0.0309043,-0.00254076,-4.69994,10.0,0.0303284,-0.00331443,-6.2368,15.0,0.0291592,-0.00389684,-7.61191,20.0,0.0287378,-0.00437336,-8.65297,25.0,0.0276141,-0.00476826,-9.79694,35.0,0.0262975,-0.00549187,-11.7959,55.0,0.0246143,-0.00606431,-13.8405,80.0,0.0228037,-0.00653564,-15.9925,120.0,0.0205056,-0.00668391,-18.0537,180.0,0.0179944,-0.00634367,-19.4194,270.0,0.015454,-0.00510395,-18.2767,405.0,0.0135949,-0.00301048,-12.4862,605.0,0.0126751,-0.000397773,-1.79748,900.0,0.0125874,0.00245654,11.043,1340.0,0.0132205,0.00530018,21.8461,2000.0
217.429,3,3.7952,1.449,,0,,1.5375,26.28,0.00855555,0.34241,0.0,0.5,0.0305616,-0.00188984,-3.5385,5.0,0.0302958,-0.00279568,-5.27229,10.0,0.0302244,-0.00358547,-6.76528,15.0,0.0291887,-0.00410077,-7.99722,20.0,0.0285068,-0.0043238,-8.62466,25.0,0.0277222,-0.00453258,-9.28569,35.0,0.0260976,-0.00549882,-11.8983,55.0,0.0247523,-0.00592163,-13.4543,80.0,0.0227898,-0.00645317,-15.81,120.0,0.0204843,-0.00671649,-18.1535,180.0,0.0179124,-0.00632401,-19.4456,270.0,0.0154597,-0.00504312,-18.0669,405.0,0.0136139,-0.00297894,-12.3427,605.0,0.0126449,-0.000381079,-1.72619,900.0,0.0125681,0.00244676,11.0165,1340.0,0.0132106,0.00530537,21.8803,2000.0
253.453,3,3.8054,1.449,,0,,1.55194,26.36,0.0082382,0.339613,0.0,0.5,0.030794,-0.00238513,-4.42896,5.0,0.0302853,-0.00235516,-4.44671,10.0,0.029776,-0.00351447,-6.73151,15.0,0.02924,-0.00390641,-7.60955,20.0,0.0283006,-0.00397396,-7.99321,25.0,0.0276212,-0.00468015,-9.61688,35.0,0.0260501,-0.00535426,-11.6146,55.0,0.0246358,-0.00594789,-13.5733,80.0,0.0227323,-0.00633118,-15.5631,120.0,0.0204441,-0.00662377,-17.952,180.0,0.0179149,-0.00625149,-19.2367,270.0,0.0154509,-0.00503063,-18.0346,405.0,0.0135934,-0.0029578,-12.2757,605.0,0.0126232,-0.000368772,-1.67335,900.0,0.0125691,0.00244245,10.9968,1340.0,0.0131986,0.00530761,21.9067,2000.0
289.447,3,3.8161,1.449,,0,,1.56639,26.43,0.0083219,0.340545,0.0,0.5,0.031058,-0.0016818,-3.09956,5.0,0.0299504,-0.0024571,-4.68999,10.0,0.0295441,-0.00333323,-6.43702,15.0,0.0289342,-0.0035833,-7.05972,20.0,0.0283709,-0.00381099,-7.65061,25.0,0.0273894,-0.0045533,-9.43872,35.0,0.0259889,-0.00542029,-11.7808,55.0,0.024546,-0.00580774,-13.3117,80.0,0.0227389,-0.00631516,-15.5213,120.0,0.0204961,-0.0065794,-17.7971,180.0,0.0178866,-0.00624334,-19.2416,270.0,0.0154307,-0.00502015,-18.0216,405.0,0.0136041,-0.00293553,-12.1767,605.0,0.012647,-0.000359624,-1.6288,900.0,0.0125592,0.0024527,11.0503,1340.0,0.0131978,0.0053165,21.9411,2000.0
325.51,3,3.8258,1.449,,0,,1.58083,26.46,0.0085416,0.343653,0.0,0.5,0.0306893,-0.00247225,-4.60566,5.0,0.0303774,-0.00256792,-4.83195,10.0,0.0293478,-0.00304504,-5.92365,15.0,0.0288622,-0.00375744,-7.41737,20.0,0.0280627,-0.00390175,-7.91548,25.0,0.0273225,-0.00451648,-9.38626,35.0,0.0258422,-0.00522101,-11.422,55.0,0.0244701,-0.00580504,-13.3456,80.0,0.0226612,-0.00621181,-15.3292,120.0,0.0203885,-0.006471,-17.6087,180.0,0.0178656,-0.00618958,-19.1087,270.0,0.0154246,-0.00497215,-17.8668,405.0,0.0135879,-0.00293094,-12.1723,605.0,0.0126353,-0.000364692,-1.65327,900.0,0.012554,0.00245545,11.0668,1340.0,0.0131918,0.00531871,21.9584,2000.0
361.483,3,3.7524,-0.965,,0,,1.59472,26.51,0.0110996,0.343031,0.0,0.5,0.0308863,-0.00169746,-3.14571,5.0,0.0300698,-0.00211911,-4.03114,10.0,0.0294374,-0.00288973,-5.60649,15.0,0.0286819,-0.00355749,-7.07044,20.0,0.0282325,-0.00421801,-8.49731,25.0,0.0272158,-0.00455753,-9.50648,35.0,0.025952,-0.00509988,-11.1176,55.0,0.0243851,-0.00578097,-13.3369,80.0,0.0225178,-0.00619091,-15.3727,120.0,0.0204085,-0.00648804,-17.6359,180.0,0.0179127,-0.00617976,-19.0341,270.0,0.015441,-0.00495015,-17.7751,405.0,0.0135852,-0.00291585,-12.1138,605.0,0.0126243,-0.000350956,-1.59242,900.0,0.0125427,0.00247568,11.1655,1340.0,0.0131878,0.00531943,21.9672,2000.0